V Density=6.11 Thickness=0.2 microns
 Photon Energy (eV), Transmission
    10.000      0.21535E-04
    11.000      0.21102E-05
    12.000      0.25939E-06
    13.000      0.64565E-07
    14.000      0.25636E-07
    15.000      0.20016E-07
    16.000      0.10204E-07
    17.000      0.88570E-08
    18.000      0.10979E-07
    19.000      0.35226E-07
    20.000      0.10485E-06
    21.000      0.48740E-06
    22.000      0.21781E-05
    23.000      0.93715E-05
    24.000      0.30197E-04
    25.000      0.71349E-04
    26.000      0.15384E-03
    27.000      0.30362E-03
    28.000      0.68601E-03
    29.000      0.14154E-02
    30.000      0.21761E-02
    31.000      0.28969E-02
    32.000      0.32125E-02
    33.000      0.32396E-02
    34.000      0.29254E-02
    35.000      0.26439E-02
    36.000      0.21398E-02
    37.000      0.15383E-02
    38.000      0.10646E-02
    39.000      0.54060E-03
    40.000      0.22637E-03
    41.000      0.58547E-04
    42.000      0.12031E-04
    43.000      0.25561E-05
    44.000      0.81571E-06
    45.000      0.34425E-06
    46.000      0.18982E-06
    47.000      0.11371E-06
    48.000      0.88395E-07
    49.000      0.11831E-06
    50.000      0.17104E-06
    51.000      0.24346E-06
    52.000      0.34660E-06
    53.000      0.49649E-06
    54.000      0.70269E-06
    55.000      0.10392E-05
    56.000      0.18936E-05
    57.000      0.35072E-05
    58.000      0.62483E-05
    59.000      0.10741E-04
    60.000      0.18729E-04
    61.000      0.32307E-04
    62.000      0.53790E-04
    63.000      0.84368E-04
    64.000      0.12425E-03
    65.000      0.17564E-03
    66.000      0.23937E-03
    67.000      0.31883E-03
    68.000      0.41881E-03
    69.000      0.54302E-03
    70.000      0.69551E-03
    71.000      0.88067E-03
    72.000      0.11031E-02
    73.000      0.13678E-02
    74.000      0.16880E-02
    75.000      0.20665E-02
    76.000      0.25080E-02
    77.000      0.29934E-02
    78.000      0.34664E-02
    79.000      0.38145E-02
    80.000      0.41859E-02
    81.000      0.45813E-02
    82.000      0.50011E-02
    83.000      0.54459E-02
    84.000      0.59162E-02
    85.000      0.64127E-02
    86.000      0.69356E-02
    87.000      0.74853E-02
    88.000      0.79268E-02
    89.000      0.83152E-02
    90.000      0.86669E-02
    91.000      0.90262E-02
    92.000      0.93931E-02
    93.000      0.97674E-02
    94.000      0.10149E-01
    95.000      0.10538E-01
    96.000      0.10934E-01
    97.000      0.11338E-01
    98.000      0.11749E-01
    99.000      0.12166E-01
    100.00      0.12591E-01
    101.00      0.13023E-01
    102.00      0.13462E-01
    103.00      0.13907E-01
    104.00      0.14359E-01
    105.00      0.14818E-01
    106.00      0.15267E-01
    107.00      0.15668E-01
    108.00      0.16057E-01
    109.00      0.16433E-01
    110.00      0.16812E-01
    111.00      0.17194E-01
    112.00      0.17579E-01
    113.00      0.17967E-01
    114.00      0.18358E-01
    115.00      0.18752E-01
    116.00      0.19149E-01
    117.00      0.19548E-01
    118.00      0.19950E-01
    119.00      0.20369E-01
    120.00      0.20798E-01
    121.00      0.21427E-01
    122.00      0.22130E-01
    123.00      0.22844E-01
    124.00      0.23569E-01
    125.00      0.24305E-01
    126.00      0.25051E-01
    127.00      0.25807E-01
    128.00      0.26574E-01
    129.00      0.27352E-01
    130.00      0.28139E-01
    131.00      0.28936E-01
    132.00      0.29743E-01
    133.00      0.30560E-01
    134.00      0.31386E-01
    135.00      0.32223E-01
    136.00      0.33068E-01
    137.00      0.33927E-01
    138.00      0.34805E-01
    139.00      0.35692E-01
    140.00      0.36587E-01
    141.00      0.37492E-01
    142.00      0.38406E-01
    143.00      0.39329E-01
    144.00      0.40260E-01
    145.00      0.41200E-01
    146.00      0.42148E-01
    147.00      0.43104E-01
    148.00      0.44069E-01
    149.00      0.45041E-01
    150.00      0.46021E-01
    151.00      0.47009E-01
    152.00      0.48004E-01
    153.00      0.49006E-01
    154.00      0.50016E-01
    155.00      0.51033E-01
    156.00      0.52057E-01
    157.00      0.53087E-01
    158.00      0.54125E-01
    159.00      0.55169E-01
    160.00      0.56219E-01
    161.00      0.57276E-01
    162.00      0.58338E-01
    163.00      0.59407E-01
    164.00      0.60482E-01
    165.00      0.61562E-01
    166.00      0.62726E-01
    167.00      0.64120E-01
    168.00      0.65526E-01
    169.00      0.66947E-01
    170.00      0.68381E-01
    171.00      0.69825E-01
    172.00      0.71280E-01
    173.00      0.72745E-01
    174.00      0.74220E-01
    175.00      0.75705E-01
    176.00      0.77199E-01
    177.00      0.78702E-01
    178.00      0.80214E-01
    179.00      0.81735E-01
    180.00      0.83265E-01
    181.00      0.84803E-01
    182.00      0.86349E-01
    183.00      0.87903E-01
    184.00      0.89465E-01
    185.00      0.91034E-01
    186.00      0.92611E-01
    187.00      0.94195E-01
    188.00      0.95785E-01
    189.00      0.97383E-01
    190.00      0.98987E-01
    191.00      0.10060    
    192.00      0.10225    
    193.00      0.10395    
    194.00      0.10565    
    195.00      0.10748    
    196.00      0.10946    
    197.00      0.11146    
    198.00      0.11347    
    199.00      0.11548    
    200.00      0.11751    
    201.00      0.11954    
    202.00      0.12158    
    203.00      0.12363    
    204.00      0.12569    
    205.00      0.12775    
    206.00      0.12983    
    207.00      0.13190    
    208.00      0.13399    
    209.00      0.13608    
    210.00      0.13818    
    211.00      0.14028    
    212.00      0.14239    
    213.00      0.14450    
    214.00      0.14662    
    215.00      0.14875    
    216.00      0.15088    
    217.00      0.15301    
    218.00      0.15515    
    219.00      0.15729    
    220.00      0.15943    
    221.00      0.16158    
    222.00      0.16373    
    223.00      0.16588    
    224.00      0.16804    
    225.00      0.17020    
    226.00      0.17236    
    227.00      0.17452    
    228.00      0.17669    
    229.00      0.17886    
    230.00      0.18103    
    231.00      0.18320    
    232.00      0.18537    
    233.00      0.18754    
    234.00      0.18971    
    235.00      0.19189    
    236.00      0.19406    
    237.00      0.19623    
    238.00      0.19841    
    239.00      0.20058    
    240.00      0.20282    
    241.00      0.20520    
    242.00      0.20759    
    243.00      0.20997    
    244.00      0.21236    
    245.00      0.21475    
    246.00      0.21713    
    247.00      0.21952    
    248.00      0.22191    
    249.00      0.22430    
    250.00      0.22668    
    251.00      0.22907    
    252.00      0.23145    
    253.00      0.23383    
    254.00      0.23621    
    255.00      0.23858    
    256.00      0.24096    
    257.00      0.24333    
    258.00      0.24570    
    259.00      0.24806    
    260.00      0.25043    
    261.00      0.25279    
    262.00      0.25515    
    263.00      0.25750    
    264.00      0.25986    
    265.00      0.26220    
    266.00      0.26455    
    267.00      0.26689    
    268.00      0.26923    
    269.00      0.27156    
    270.00      0.27389    
    271.00      0.27622    
    272.00      0.27854    
    273.00      0.28085    
    274.00      0.28317    
    275.00      0.28547    
    276.00      0.28778    
    277.00      0.29008    
    278.00      0.29237    
    279.00      0.29466    
    280.00      0.29694    
    281.00      0.29922    
    282.00      0.30149    
    283.00      0.30376    
    284.00      0.30603    
    285.00      0.30828    
    286.00      0.31054    
    287.00      0.31278    
    288.00      0.31502    
    289.00      0.31726    
    290.00      0.31949    
    291.00      0.32179    
    292.00      0.32419    
    293.00      0.32659    
    294.00      0.32899    
    295.00      0.33137    
    296.00      0.33381    
    297.00      0.33627    
    298.00      0.33873    
    299.00      0.34117    
    300.00      0.34361    
    301.00      0.34605    
    302.00      0.34847    
    303.00      0.35089    
    304.00      0.35331    
    305.00      0.35571    
    306.00      0.35811    
    307.00      0.36050    
    308.00      0.36288    
    309.00      0.36525    
    310.00      0.36762    
    311.00      0.36998    
    312.00      0.37233    
    313.00      0.37468    
    314.00      0.37701    
    315.00      0.37934    
    316.00      0.38166    
    317.00      0.38397    
    318.00      0.38628    
    319.00      0.38858    
    320.00      0.39087    
    321.00      0.39315    
    322.00      0.39542    
    323.00      0.39768    
    324.00      0.39994    
    325.00      0.40219    
    326.00      0.40443    
    327.00      0.40666    
    328.00      0.40889    
    329.00      0.41110    
    330.00      0.41331    
    331.00      0.41551    
    332.00      0.41770    
    333.00      0.41989    
    334.00      0.42206    
    335.00      0.42423    
    336.00      0.42639    
    337.00      0.42854    
    338.00      0.43068    
    339.00      0.43281    
    340.00      0.43494    
    341.00      0.43705    
    342.00      0.43916    
    343.00      0.44126    
    344.00      0.44335    
    345.00      0.44544    
    346.00      0.44751    
    347.00      0.44958    
    348.00      0.45164    
    349.00      0.45369    
    350.00      0.45573    
    351.00      0.45776    
    352.00      0.45979    
    353.00      0.46185    
    354.00      0.46392    
    355.00      0.46598    
    356.00      0.46804    
    357.00      0.47008    
    358.00      0.47212    
    359.00      0.47420    
    360.00      0.47627    
    361.00      0.47833    
    362.00      0.48038    
    363.00      0.48242    
    364.00      0.48446    
    365.00      0.48649    
    366.00      0.48850    
    367.00      0.49051    
    368.00      0.49251    
    369.00      0.49451    
    370.00      0.49649    
    371.00      0.49846    
    372.00      0.50043    
    373.00      0.50238    
    374.00      0.50433    
    375.00      0.50627    
    376.00      0.50820    
    377.00      0.51012    
    378.00      0.51204    
    379.00      0.51394    
    380.00      0.51584    
    381.00      0.51772    
    382.00      0.51960    
    383.00      0.52147    
    384.00      0.52334    
    385.00      0.52519    
    386.00      0.52704    
    387.00      0.52887    
    388.00      0.53070    
    389.00      0.53252    
    390.00      0.53433    
    391.00      0.53614    
    392.00      0.53793    
    393.00      0.53972    
    394.00      0.54150    
    395.00      0.54327    
    396.00      0.54503    
    397.00      0.54679    
    398.00      0.54853    
    399.00      0.55027    
    400.00      0.55200    
    401.00      0.55372    
    402.00      0.55544    
    403.00      0.55715    
    404.00      0.55884    
    405.00      0.56053    
    406.00      0.56222    
    407.00      0.56389    
    408.00      0.56556    
    409.00      0.56722    
    410.00      0.56887    
    411.00      0.57052    
    412.00      0.57215    
    413.00      0.57378    
    414.00      0.57546    
    415.00      0.57724    
    416.00      0.57900    
    417.00      0.58076    
    418.00      0.58251    
    419.00      0.58425    
    420.00      0.58598    
    421.00      0.58771    
    422.00      0.58944    
    423.00      0.59116    
    424.00      0.59286    
    425.00      0.59457    
    426.00      0.59626    
    427.00      0.59794    
    428.00      0.59962    
    429.00      0.60128    
    430.00      0.60294    
    431.00      0.60459    
    432.00      0.60624    
    433.00      0.60787    
    434.00      0.60950    
    435.00      0.61111    
    436.00      0.61272    
    437.00      0.61433    
    438.00      0.61592    
    439.00      0.61750    
    440.00      0.61908    
    441.00      0.62065    
    442.00      0.62221    
    443.00      0.62377    
    444.00      0.62531    
    445.00      0.62685    
    446.00      0.62838    
    447.00      0.62990    
    448.00      0.63142    
    449.00      0.63291    
    450.00      0.63438    
    451.00      0.63585    
    452.00      0.63731    
    453.00      0.63876    
    454.00      0.64020    
    455.00      0.64164    
    456.00      0.64299    
    457.00      0.64426    
    458.00      0.64553    
    459.00      0.64679    
    460.00      0.64804    
    461.00      0.64929    
    462.00      0.65054    
    463.00      0.65177    
    464.00      0.65301    
    465.00      0.65423    
    466.00      0.65545    
    467.00      0.65667    
    468.00      0.65788    
    469.00      0.65908    
    470.00      0.66028    
    471.00      0.66147    
    472.00      0.66265    
    473.00      0.66384    
    474.00      0.66501    
    475.00      0.66618    
    476.00      0.66735    
    477.00      0.66850    
    478.00      0.66966    
    479.00      0.67080    
    480.00      0.67194    
    481.00      0.67307    
    482.00      0.67420    
    483.00      0.67532    
    484.00      0.67644    
    485.00      0.67755    
    486.00      0.67863    
    487.00      0.67967    
    488.00      0.68071    
    489.00      0.68174    
    490.00      0.68276    
    491.00      0.68379    
    492.00      0.68480    
    493.00      0.68582    
    494.00      0.68682    
    495.00      0.68783    
    496.00      0.68883    
    497.00      0.68982    
    498.00      0.69081    
    499.00      0.69180    
    500.00      0.69278     
    501.00      0.69376    
    502.00      0.69473    
    503.00      0.69570    
    504.00      0.69666    
    505.00      0.69762    
    506.00      0.69858    
    507.00      0.69953    
    508.00      0.70048    
    509.00      0.70142    
    510.00      0.70236    
    511.00      0.70329    
    512.00      0.70423    
    513.00      0.44289E-01
    514.00      0.44888E-01
    515.00      0.45490E-01
    516.00      0.46097E-01
    517.00      0.46709E-01
    518.00      0.47324E-01
    519.00      0.47944E-01
    520.00      0.48568E-01
    521.00      0.49197E-01
    522.00      0.49829E-01
    523.00      0.50466E-01
    524.00      0.51107E-01
    525.00      0.51752E-01
    526.00      0.52401E-01
    527.00      0.53054E-01
    528.00      0.53711E-01
    529.00      0.54372E-01
    530.00      0.55037E-01
    531.00      0.55706E-01
    532.00      0.56379E-01
    533.00      0.57057E-01
    534.00      0.57738E-01
    535.00      0.58423E-01
    536.00      0.59113E-01
    537.00      0.59806E-01
    538.00      0.60503E-01
    539.00      0.61204E-01
    540.00      0.61909E-01
    541.00      0.62618E-01
    542.00      0.63330E-01
    543.00      0.64047E-01
    544.00      0.64767E-01
    545.00      0.65492E-01
    546.00      0.66220E-01
    547.00      0.66951E-01
    548.00      0.67687E-01
    549.00      0.68426E-01
    550.00      0.69169E-01
    551.00      0.69915E-01
    552.00      0.70666E-01
    553.00      0.71439E-01
    554.00      0.72219E-01
    555.00      0.73003E-01
    556.00      0.73791E-01
    557.00      0.74582E-01
    558.00      0.75377E-01
    559.00      0.76176E-01
    560.00      0.76979E-01
    561.00      0.77786E-01
    562.00      0.78562E-01
    563.00      0.79340E-01
    564.00      0.80122E-01
    565.00      0.80906E-01
    566.00      0.81694E-01
    567.00      0.82484E-01
    568.00      0.83278E-01
    569.00      0.84075E-01
    570.00      0.84876E-01
    571.00      0.85387E-01
    572.00      0.85853E-01
    573.00      0.86319E-01
    574.00      0.86786E-01
    575.00      0.87253E-01
    576.00      0.87722E-01
    577.00      0.88191E-01
    578.00      0.88660E-01
    579.00      0.89130E-01
    580.00      0.89543E-01
    581.00      0.89924E-01
    582.00      0.90305E-01
    583.00      0.90686E-01
    584.00      0.91068E-01
    585.00      0.91450E-01
    586.00      0.91832E-01
    587.00      0.92214E-01
    588.00      0.92597E-01
    589.00      0.92964E-01
    590.00      0.93289E-01
    591.00      0.93613E-01
    592.00      0.93938E-01
    593.00      0.94263E-01
    594.00      0.94588E-01
    595.00      0.94913E-01
    596.00      0.95239E-01
    597.00      0.95564E-01
    598.00      0.95889E-01
    599.00      0.96215E-01
    600.00      0.96540E-01
    601.00      0.96866E-01
    602.00      0.97191E-01
    603.00      0.97517E-01
    604.00      0.97842E-01
    605.00      0.98168E-01
    606.00      0.98494E-01
    607.00      0.98820E-01
    608.00      0.99146E-01
    609.00      0.99472E-01
    610.00      0.99798E-01
    611.00      0.10012    
    612.00      0.10045    
    613.00      0.10078    
    614.00      0.10110    
    615.00      0.10143    
    616.00      0.10176    
    617.00      0.10208    
    618.00      0.10241    
    619.00      0.10275    
    620.00      0.10309    
    621.00      0.10343    
    622.00      0.10377    
    623.00      0.10411    
    624.00      0.10445    
    625.00      0.10479    
    626.00      0.10513    
    627.00      0.10547    
    628.00      0.10585    
    629.00      0.10636    
    630.00      0.10686    
    631.00      0.10736    
    632.00      0.10786    
    633.00      0.10837    
    634.00      0.10887    
    635.00      0.10938    
    636.00      0.10988    
    637.00      0.11039    
    638.00      0.11092    
    639.00      0.11167    
    640.00      0.11242    
    641.00      0.11317    
    642.00      0.11392    
    643.00      0.11468    
    644.00      0.11543    
    645.00      0.11619    
    646.00      0.11695    
    647.00      0.11771    
    648.00      0.11847    
    649.00      0.11936    
    650.00      0.12029    
    651.00      0.12122    
    652.00      0.12216    
    653.00      0.12309    
    654.00      0.12403    
    655.00      0.12497    
    656.00      0.12591    
    657.00      0.12686    
    658.00      0.12781    
    659.00      0.12876    
    660.00      0.12971    
    661.00      0.13066    
    662.00      0.13162    
    663.00      0.13257    
    664.00      0.13353    
    665.00      0.13450    
    666.00      0.13546    
    667.00      0.13643    
    668.00      0.13739    
    669.00      0.13836    
    670.00      0.13930    
    671.00      0.14022    
    672.00      0.14113    
    673.00      0.14205    
    674.00      0.14297    
    675.00      0.14390    
    676.00      0.14482    
    677.00      0.14575    
    678.00      0.14667    
    679.00      0.14760    
    680.00      0.14853    
    681.00      0.14943    
    682.00      0.15032    
    683.00      0.15120    
    684.00      0.15209    
    685.00      0.15299    
    686.00      0.15388    
    687.00      0.15477    
    688.00      0.15566    
    689.00      0.15656    
    690.00      0.15746    
    691.00      0.15835    
    692.00      0.15924    
    693.00      0.16013    
    694.00      0.16102    
    695.00      0.16191    
    696.00      0.16280    
    697.00      0.16370    
    698.00      0.16459    
    699.00      0.16548    
    700.00      0.16638    
    701.00      0.16728    
    702.00      0.16817    
    703.00      0.16910    
    704.00      0.17004    
    705.00      0.17098    
    706.00      0.17192    
    707.00      0.17287    
    708.00      0.17381    
    709.00      0.17476    
    710.00      0.17570    
    711.00      0.17665    
    712.00      0.17760    
    713.00      0.17855    
    714.00      0.17950    
    715.00      0.18048    
    716.00      0.18147    
    717.00      0.18245    
    718.00      0.18343    
    719.00      0.18441    
    720.00      0.18540    
