 Al Density=2.6989 Thickness=0.8 microns
 Photon Energy (eV), Transmission
    10.000      0.00000    
    11.000      1.45322E-37
    12.000      2.63978E-32
    13.000      1.13456E-27
    14.000      2.80190E-22
    15.000      1.23838E-08
    16.000      1.36016E-03
    17.000      2.08624E-02
    18.000      5.38456E-02
    19.000      9.44706E-02
    20.000      0.14815    
    21.000      0.16442    
    22.000      0.16845    
    23.000      0.17233    
    24.000      0.16513    
    25.000      0.15573    
    26.000      0.14899    
    27.000      0.14722    
    28.000      0.14551    
    29.000      0.14388    
    30.000      0.14231    
    31.000      0.14080    
    32.000      0.13934    
    33.000      0.13917    
    34.000      0.14161    
    35.000      0.14400    
    36.000      0.14635    
    37.000      0.14865    
    38.000      0.15090    
    39.000      0.15311    
    40.000      0.15528    
    41.000      0.15767    
    42.000      0.16192    
    43.000      0.16620    
    44.000      0.17043    
    45.000      0.17461    
    46.000      0.17873    
    47.000      0.18281    
    48.000      0.19052    
    49.000      0.20317    
    50.000      0.21638    
    51.000      0.22960    
    52.000      0.24281    
    53.000      0.25597    
    54.000      0.26736    
    55.000      0.27757    
    56.000      0.28768    
    57.000      0.29767    
    58.000      0.30755    
    59.000      0.31731    
    60.000      0.32498    
    61.000      0.33066    
    62.000      0.33588    
    63.000      0.34103    
    64.000      0.33811    
    65.000      0.33138    
    66.000      0.32448    
    67.000      0.31770    
    68.000      0.31163    
    69.000      0.30630    
    70.000      0.30114    
    71.000      0.29606    
    72.000      0.29107    
    73.000      6.66770E-07
    74.000      4.10922E-07
    75.000      2.50830E-07
    76.000      1.51633E-07
    77.000      9.07724E-08
    78.000      5.38029E-08
    79.000      3.15798E-08
    80.000      1.83521E-08
    81.000      1.08018E-08
    82.000      6.45996E-09
    83.000      3.84143E-09
    84.000      2.26653E-09
    85.000      1.32679E-09
    86.000      7.92422E-10
    87.000      5.51397E-10
    88.000      4.51339E-10
    89.000      3.89009E-10
    90.000      3.35507E-10
    91.000      2.89553E-10
    92.000      2.50048E-10
    93.000      2.16069E-10
    94.000      1.86821E-10
    95.000      1.61632E-10
    96.000      1.39921E-10
    97.000      1.21201E-10
    98.000      1.05042E-10
    99.000      9.10884E-11
    100.00      7.90342E-11
    101.00      6.86134E-11
    102.00      5.95950E-11
    103.00      5.21904E-11
    104.00      4.59855E-11
    105.00      4.17684E-11
    106.00      3.80527E-11
    107.00      3.46897E-11
    108.00      3.16377E-11
    109.00      2.88676E-11
    110.00      2.63521E-11
    111.00      2.40674E-11
    112.00      2.19935E-11
    113.00      2.01075E-11
    114.00      1.83918E-11
    115.00      1.68308E-11
    116.00      1.54100E-11
    117.00      1.41139E-11
    118.00      1.29318E-11
    119.00      1.18547E-11
    120.00      1.08722E-11
    121.00      9.97545E-12
    122.00      9.15659E-12
    123.00      8.40789E-12
    124.00      7.72354E-12
    125.00      8.47311E-12
    126.00      9.61491E-12
    127.00      1.14189E-11
    128.00      1.36618E-11
    129.00      1.63024E-11
    130.00      1.94029E-11
    131.00      2.30340E-11
    132.00      2.72767E-11
    133.00      3.22226E-11
    134.00      3.79748E-11
    135.00      4.46503E-11
    136.00      5.23803E-11
    137.00      6.13118E-11
    138.00      7.16089E-11
    139.00      8.34570E-11
    140.00      9.70625E-11
    141.00      1.12655E-10
    142.00      1.30492E-10
    143.00      1.50855E-10
    144.00      1.74061E-10
    145.00      2.00459E-10
    146.00      2.30433E-10
    147.00      2.64406E-10
    148.00      3.02850E-10
    149.00      3.46285E-10
    150.00      3.95275E-10
    151.00      4.58106E-10
    152.00      5.39950E-10
    153.00      6.34966E-10
    154.00      7.45730E-10
    155.00      8.73852E-10
    156.00      1.02174E-09
    157.00      1.19207E-09
    158.00      1.38786E-09
    159.00      1.61248E-09
    160.00      1.86964E-09
    161.00      2.16350E-09
    162.00      2.49863E-09
    163.00      2.88016E-09
    164.00      3.31370E-09
    165.00      3.80548E-09
    166.00      4.36236E-09
    167.00      4.99189E-09
    168.00      5.70234E-09
    169.00      6.50278E-09
    170.00      7.40310E-09
    171.00      8.41428E-09
    172.00      9.54802E-09
    173.00      1.08174E-08
    174.00      1.22365E-08
    175.00      1.38208E-08
    176.00      1.55869E-08
    177.00      1.77130E-08
    178.00      2.05836E-08
    179.00      2.38693E-08
    180.00      2.84539E-08
    181.00      3.52552E-08
    182.00      4.35166E-08
    183.00      5.35156E-08
    184.00      6.55755E-08
    185.00      8.00680E-08
    186.00      9.74227E-08
    187.00      1.18136E-07
    188.00      1.42779E-07
    189.00      1.72009E-07
    190.00      2.06574E-07
    191.00      2.47316E-07
    192.00      2.95191E-07
    193.00      3.51281E-07
    194.00      4.16823E-07
    195.00      4.93203E-07
    196.00      5.81970E-07
    197.00      6.84851E-07
    198.00      8.03790E-07
    199.00      9.40941E-07
    200.00      1.09870E-06
    201.00      1.27988E-06
    202.00      1.49014E-06
    203.00      1.73071E-06
    204.00      2.00530E-06
    205.00      2.31800E-06
    206.00      2.67330E-06
    207.00      3.07617E-06
    208.00      3.53202E-06
    209.00      4.04676E-06
    210.00      4.62671E-06
    211.00      5.27884E-06
    212.00      6.01049E-06
    213.00      6.82994E-06
    214.00      7.74596E-06
    215.00      8.76826E-06
    216.00      9.90698E-06
    217.00      1.11730E-05
    218.00      1.25783E-05
    219.00      1.41353E-05
    220.00      1.58576E-05
    221.00      1.77596E-05
    222.00      1.97874E-05
    223.00      2.19891E-05
    224.00      2.43993E-05
    225.00      2.69790E-05
    226.00      2.95243E-05
    227.00      3.22722E-05
    228.00      3.52353E-05
    229.00      3.84273E-05
    230.00      4.18621E-05
    231.00      4.55543E-05
    232.00      4.95192E-05
    233.00      5.37727E-05
    234.00      5.83315E-05
    235.00      6.32121E-05
    236.00      6.84328E-05
    237.00      7.40118E-05
    238.00      7.99685E-05
    239.00      8.63225E-05
    240.00      9.30944E-05
    241.00      1.00305E-04
    242.00      1.07975E-04
    243.00      1.16129E-04
    244.00      1.24789E-04
    245.00      1.33981E-04
    246.00      1.43727E-04
    247.00      1.54054E-04
    248.00      1.64987E-04
    249.00      1.76555E-04
    250.00      1.88784E-04
    251.00      2.01702E-04
    252.00      2.15336E-04
    253.00      2.29716E-04
    254.00      2.44874E-04
    255.00      2.60840E-04
    256.00      2.77645E-04
    257.00      2.95325E-04
    258.00      3.13909E-04
    259.00      3.33432E-04
    260.00      3.53930E-04
    261.00      3.75431E-04
    262.00      3.97978E-04
    263.00      4.21603E-04
    264.00      4.46428E-04
    265.00      4.73826E-04
    266.00      5.02561E-04
    267.00      5.32685E-04
    268.00      5.64240E-04
    269.00      6.03421E-04
    270.00      6.46526E-04
    271.00      6.92090E-04
    272.00      7.40212E-04
    273.00      7.91000E-04
    274.00      8.44555E-04
    275.00      9.00985E-04
    276.00      9.60391E-04
    277.00      1.02289E-03
    278.00      1.08857E-03
    279.00      1.15758E-03
    280.00      1.23000E-03
    281.00      1.30597E-03
    282.00      1.38560E-03
    283.00      1.46900E-03
    284.00      1.55630E-03
    285.00      1.64761E-03
    286.00      1.74306E-03
    287.00      1.84277E-03
    288.00      1.94687E-03
    289.00      2.05548E-03
    290.00      2.16872E-03
    291.00      2.28672E-03
    292.00      2.40961E-03
    293.00      2.53750E-03
    294.00      2.67054E-03
    295.00      2.80884E-03
    296.00      2.95253E-03
    297.00      3.10173E-03
    298.00      3.25657E-03
    299.00      3.41721E-03
    300.00      3.58373E-03
    301.00      3.75631E-03
    302.00      3.93503E-03
    303.00      4.12006E-03
    304.00      4.31149E-03
    305.00      4.50946E-03
    306.00      4.71407E-03
    307.00      4.92545E-03
    308.00      5.14374E-03
    309.00      5.36907E-03
    310.00      5.60153E-03
    311.00      5.84129E-03
    312.00      6.08844E-03
    313.00      6.34309E-03
    314.00      6.60534E-03
    315.00      6.87534E-03
    316.00      7.15321E-03
    317.00      7.43904E-03
    318.00      7.73296E-03
    319.00      8.03504E-03
    320.00      8.34542E-03
    321.00      8.66420E-03
    322.00      8.99148E-03
    323.00      9.32737E-03
    324.00      9.67196E-03
    325.00      1.00254E-02
    326.00      1.03876E-02
    327.00      1.07588E-02
    328.00      1.11391E-02
    329.00      1.15286E-02
    330.00      1.19273E-02
    331.00      1.23354E-02
    332.00      1.27529E-02
    333.00      1.31800E-02
    334.00      1.36166E-02
    335.00      1.40629E-02
    336.00      1.45189E-02
    337.00      1.49848E-02
    338.00      1.54604E-02
    339.00      1.59461E-02
    340.00      1.64417E-02
    341.00      1.69475E-02
    342.00      1.74632E-02
    343.00      1.79891E-02
    344.00      1.85252E-02
    345.00      1.90717E-02
    346.00      1.96284E-02
    347.00      2.01955E-02
    348.00      2.07731E-02
    349.00      2.13611E-02
    350.00      2.19596E-02
    351.00      2.25686E-02
    352.00      2.31882E-02
    353.00      2.38184E-02
    354.00      2.44593E-02
    355.00      2.51108E-02
    356.00      2.57729E-02
    357.00      2.64457E-02
    358.00      2.71293E-02
    359.00      2.77715E-02
    360.00      2.84220E-02
    361.00      2.90814E-02
    362.00      2.97498E-02
    363.00      3.04274E-02
    364.00      3.11105E-02
    365.00      3.17880E-02
    366.00      3.24739E-02
    367.00      3.31684E-02
    368.00      3.38714E-02
    369.00      3.45828E-02
    370.00      3.53028E-02
    371.00      3.60311E-02
    372.00      3.67679E-02
    373.00      3.75131E-02
    374.00      3.82667E-02
    375.00      3.90287E-02
    376.00      3.97991E-02
    377.00      4.05777E-02
    378.00      4.13646E-02
    379.00      4.21599E-02
    380.00      4.29634E-02
    381.00      4.37752E-02
    382.00      4.45952E-02
    383.00      4.54233E-02
    384.00      4.62598E-02
    385.00      4.71043E-02
    386.00      4.79569E-02
    387.00      4.88175E-02
    388.00      4.96861E-02
    389.00      5.05625E-02
    390.00      5.14469E-02
    391.00      5.23391E-02
    392.00      5.32392E-02
    393.00      5.41472E-02
    394.00      5.50628E-02
    395.00      5.59863E-02
    396.00      5.69175E-02
    397.00      5.78563E-02
    398.00      5.88027E-02
    399.00      5.97566E-02
    400.00      6.07182E-02
    401.00      6.16870E-02
    402.00      6.26633E-02
    403.00      6.36470E-02
    404.00      6.46380E-02
    405.00      6.56363E-02
    406.00      6.66417E-02
    407.00      6.76543E-02
    408.00      6.86740E-02
    409.00      6.97009E-02
    410.00      7.07346E-02
    411.00      7.17754E-02
    412.00      7.28230E-02
    413.00      7.38775E-02
    414.00      7.49387E-02
    415.00      7.60065E-02
    416.00      7.70811E-02
    417.00      7.81622E-02
    418.00      7.92498E-02
    419.00      8.03439E-02
    420.00      8.14444E-02
    421.00      8.25514E-02
    422.00      8.36645E-02
    423.00      8.47840E-02
    424.00      8.59096E-02
    425.00      8.70413E-02
    426.00      8.81792E-02
    427.00      8.93229E-02
    428.00      9.04727E-02
    429.00      9.16286E-02
    430.00      9.27901E-02
    431.00      9.39575E-02
    432.00      9.51305E-02
    433.00      9.63092E-02
    434.00      9.74934E-02
    435.00      9.87566E-02
    436.00      0.10003    
    437.00      0.10131    
    438.00      0.10259    
    439.00      0.10388    
    440.00      0.10518    
    441.00      0.10648    
    442.00      0.10782    
    443.00      0.10917    
    444.00      0.11053    
    445.00      0.11189    
    446.00      0.11326    
    447.00      0.11463    
    448.00      0.11601    
    449.00      0.11739    
    450.00      0.11878    
    451.00      0.12017    
    452.00      0.12157    
    453.00      0.12298    
    454.00      0.12439    
    455.00      0.12580    
    456.00      0.12722    
    457.00      0.12865    
    458.00      0.13008    
    459.00      0.13152    
    460.00      0.13296    
    461.00      0.13440    
    462.00      0.13585    
    463.00      0.13731    
    464.00      0.13877    
    465.00      0.14023    
    466.00      0.14170    
    467.00      0.14317    
    468.00      0.14465    
    469.00      0.14613    
    470.00      0.14762    
    471.00      0.14911    
    472.00      0.15060    
    473.00      0.15210    
    474.00      0.15360    
    475.00      0.15510    
    476.00      0.15661    
    477.00      0.15812    
    478.00      0.15964    
    479.00      0.16115    
    480.00      0.16268    
    481.00      0.16420    
    482.00      0.16573    
    483.00      0.16726    
    484.00      0.16880    
    485.00      0.17033    
    486.00      0.17187    
    487.00      0.17342    
    488.00      0.17497    
    489.00      0.17652    
    490.00      0.17808    
    491.00      0.17963    
    492.00      0.18119    
    493.00      0.18275    
    494.00      0.18432    
    495.00      0.18590    
    496.00      0.18749    
    497.00      0.18907    
    498.00      0.19066    
    499.00      0.19225    
    500.00      0.19384    
    501.00      0.19543    
    502.00      0.19704    
    503.00      0.19866    
    504.00      0.20028    
    505.00      0.20191    
    506.00      0.20354    
    507.00      0.20516    
    508.00      0.20680    
    509.00      0.20843    
    510.00      0.21006    
    511.00      0.21171    
    512.00      0.21335    
    513.00      0.21500    
    514.00      0.21665    
    515.00      0.21830    
    516.00      0.21995    
    517.00      0.22160    
    518.00      0.22325    
    519.00      0.22490    
    520.00      0.22655    
    521.00      0.22820    
    522.00      0.22986    
    523.00      0.23151    
    524.00      0.23316    
    525.00      0.23482    
    526.00      0.23647    
    527.00      0.23812    
    528.00      0.23977    
    529.00      0.24142    
    530.00      0.24306    
    531.00      0.24471    
    532.00      0.24636    
    533.00      0.24801    
    534.00      0.24966    
    535.00      0.25131    
    536.00      0.25295    
    537.00      0.25460    
    538.00      0.25624    
    539.00      0.25789    
    540.00      0.25953    
    541.00      0.26118    
    542.00      0.26282    
    543.00      0.26446    
    544.00      0.26611    
    545.00      0.26775    
    546.00      0.26939    
    547.00      0.27103    
    548.00      0.27267    
    549.00      0.27431    
    550.00      0.27595    
    551.00      0.27758    
    552.00      0.27922    
    553.00      0.28089    
    554.00      0.28255    
    555.00      0.28422    
    556.00      0.28589    
    557.00      0.28755    
    558.00      0.28922    
    559.00      0.29088    
    560.00      0.29254    
    561.00      0.29420    
    562.00      0.29588    
    563.00      0.29756    
    564.00      0.29923    
    565.00      0.30090    
    566.00      0.30258    
    567.00      0.30425    
    568.00      0.30592    
    569.00      0.30759    
    570.00      0.30925    
    571.00      0.31093    
    572.00      0.31262    
    573.00      0.31430    
    574.00      0.31598    
    575.00      0.31766    
    576.00      0.31934    
    577.00      0.32101    
    578.00      0.32268    
    579.00      0.32436    
    580.00      0.32603    
    581.00      0.32770    
    582.00      0.32937    
    583.00      0.33104    
    584.00      0.33270    
    585.00      0.33437    
    586.00      0.33603    
    587.00      0.33769    
    588.00      0.33934    
    589.00      0.34100    
    590.00      0.34265    
    591.00      0.34431    
    592.00      0.34596    
    593.00      0.34761    
    594.00      0.34925    
    595.00      0.35090    
    596.00      0.35254    
    597.00      0.35418    
    598.00      0.35581    
    599.00      0.35745    
    600.00      0.35908    
    601.00      0.36071    
    602.00      0.36233    
    603.00      0.36396    
    604.00      0.36558    
    605.00      0.36720    
    606.00      0.36881    
    607.00      0.37043    
    608.00      0.37204    
    609.00      0.37364    
    610.00      0.37525    
    611.00      0.37685    
    612.00      0.37845    
    613.00      0.38005    
    614.00      0.38164    
    615.00      0.38323    
    616.00      0.38482    
    617.00      0.38640    
    618.00      0.38799    
    619.00      0.38957    
    620.00      0.39115    
    621.00      0.39273    
    622.00      0.39430    
    623.00      0.39587    
    624.00      0.39744    
    625.00      0.39900    
    626.00      0.40056    
    627.00      0.40212    
    628.00      0.40368    
    629.00      0.40526    
    630.00      0.40684    
    631.00      0.40842    
    632.00      0.40999    
    633.00      0.41156    
    634.00      0.41312    
    635.00      0.41468    
    636.00      0.41624    
    637.00      0.41780    
    638.00      0.41935    
    639.00      0.42095    
    640.00      0.42254    
    641.00      0.42412    
    642.00      0.42570    
    643.00      0.42728    
    644.00      0.42886    
    645.00      0.43043    
    646.00      0.43200    
    647.00      0.43356    
    648.00      0.43512    
    649.00      0.43670    
    650.00      0.43829    
    651.00      0.43987    
    652.00      0.44144    
    653.00      0.44301    
    654.00      0.44458    
    655.00      0.44614    
    656.00      0.44771    
    657.00      0.44926    
    658.00      0.45082    
    659.00      0.45236    
    660.00      0.45391    
    661.00      0.45545    
    662.00      0.45699    
    663.00      0.45852    
    664.00      0.46005    
    665.00      0.46158    
    666.00      0.46310    
    667.00      0.46462    
    668.00      0.46613    
    669.00      0.46764    
    670.00      0.46909    
    671.00      0.47050    
    672.00      0.47191    
    673.00      0.47331    
    674.00      0.47471    
    675.00      0.47611    
    676.00      0.47750    
    677.00      0.47889    
    678.00      0.48028    
    679.00      0.48166    
    680.00      0.48304    
    681.00      0.48435    
    682.00      0.48565    
    683.00      0.48695    
    684.00      0.48825    
    685.00      0.48954    
    686.00      0.49083    
    687.00      0.49211    
    688.00      0.49339    
    689.00      0.49467    
    690.00      0.49595    
    691.00      0.49722    
    692.00      0.49847    
    693.00      0.49972    
    694.00      0.50096    
    695.00      0.50221    
    696.00      0.50344    
    697.00      0.50468    
    698.00      0.50591    
    699.00      0.50714    
    700.00      0.50836    
    701.00      0.50959    
    702.00      0.51080    
    703.00      0.51206    
    704.00      0.51332    
    705.00      0.51459    
    706.00      0.51585    
    707.00      0.51711    
    708.00      0.51837    
    709.00      0.51962    
    710.00      0.52087    
    711.00      0.52211    
    712.00      0.52336    
    713.00      0.52459    
    714.00      0.52584    
    715.00      0.52711    
    716.00      0.52838    
    717.00      0.52964    
    718.00      0.53090    
    719.00      0.53216    
    720.00      0.53341    
