 C10H8O4 Density=1.4 Thickness=2. microns
 Photon Energy (eV), Transmission
    10.000      0.10589E-28
    11.000      0.12290E-33
    12.000      0.41379E-40
    13.000      0.00000    
    14.000      0.00000    
    15.000      0.00000    
    16.000      0.00000    
    17.000      0.00000    
    18.000      0.00000    
    19.000      0.00000    
    20.000      0.00000    
    21.000      0.00000    
    22.000      0.00000    
    23.000      0.00000    
    24.000      0.00000    
    25.000      0.00000    
    26.000      0.00000    
    27.000      0.00000    
    28.000      0.00000    
    29.000      0.14013E-44
    30.000      0.44561E-42
    31.000      0.80663E-40
    32.000      0.89950E-38
    33.000      0.65517E-36
    34.000      0.32787E-34
    35.000      0.11732E-32
    36.000      0.28690E-31
    37.000      0.84692E-30
    38.000      0.21816E-28
    39.000      0.44200E-27
    40.000      0.81895E-26
    41.000      0.13318E-24
    42.000      0.17709E-23
    43.000      0.19598E-22
    44.000      0.18369E-21
    45.000      0.14652E-20
    46.000      0.87466E-20
    47.000      0.45472E-19
    48.000      0.21499E-18
    49.000      0.98282E-18
    50.000      0.47111E-17
    51.000      0.20659E-16
    52.000      0.83417E-16
    53.000      0.31197E-15
    54.000      0.10268E-14
    55.000      0.30504E-14
    56.000      0.85905E-14
    57.000      0.23015E-13
    58.000      0.58839E-13
    59.000      0.14400E-12
    60.000      0.33824E-12
    61.000      0.77879E-12
    62.000      0.18223E-11
    63.000      0.41741E-11
    64.000      0.92041E-11
    65.000      0.19582E-10
    66.000      0.40275E-10
    67.000      0.80246E-10
    68.000      0.15517E-09
    69.000      0.29171E-09
    70.000      0.53352E-09
    71.000      0.94968E-09
    72.000      0.16501E-08
    73.000      0.28042E-08
    74.000      0.46663E-08
    75.000      0.76112E-08
    76.000      0.12182E-07
    77.000      0.19152E-07
    78.000      0.29604E-07
    79.000      0.45022E-07
    80.000      0.67426E-07
    81.000      0.99515E-07
    82.000      0.14485E-06
    83.000      0.20806E-06
    84.000      0.29511E-06
    85.000      0.41359E-06
    86.000      0.57300E-06
    87.000      0.78519E-06
    88.000      0.10647E-05
    89.000      0.14294E-05
    90.000      0.19006E-05
    91.000      0.25041E-05
    92.000      0.32705E-05
    93.000      0.42356E-05
    94.000      0.54416E-05
    95.000      0.69371E-05
    96.000      0.87784E-05
    97.000      0.11030E-04
    98.000      0.13809E-04
    99.000      0.17255E-04
    100.00      0.21773E-04
    101.00      0.27377E-04
    102.00      0.34181E-04
    103.00      0.42385E-04
    104.00      0.52216E-04
    105.00      0.63928E-04
    106.00      0.77797E-04
    107.00      0.94124E-04
    108.00      0.11325E-03
    109.00      0.13554E-03
    110.00      0.16137E-03
    111.00      0.19118E-03
    112.00      0.22542E-03
    113.00      0.26457E-03
    114.00      0.30915E-03
    115.00      0.35970E-03
    116.00      0.41678E-03
    117.00      0.48102E-03
    118.00      0.55304E-03
    119.00      0.63349E-03
    120.00      0.72307E-03
    121.00      0.82246E-03
    122.00      0.93240E-03
    123.00      0.10536E-02
    124.00      0.11870E-02
    125.00      0.13332E-02
    126.00      0.14930E-02
    127.00      0.16673E-02
    128.00      0.18570E-02
    129.00      0.20628E-02
    130.00      0.22855E-02
    131.00      0.25259E-02
    132.00      0.27851E-02
    133.00      0.30686E-02
    134.00      0.33768E-02
    135.00      0.37042E-02
    136.00      0.40506E-02
    137.00      0.44201E-02
    138.00      0.48138E-02
    139.00      0.52323E-02
    140.00      0.56764E-02
    141.00      0.61470E-02
    142.00      0.66446E-02
    143.00      0.71701E-02
    144.00      0.77242E-02
    145.00      0.83077E-02
    146.00      0.89211E-02
    147.00      0.95650E-02
    148.00      0.10240E-01
    149.00      0.10947E-01
    150.00      0.11686E-01
    151.00      0.12458E-01
    152.00      0.13263E-01
    153.00      0.14102E-01
    154.00      0.14975E-01
    155.00      0.15882E-01
    156.00      0.16825E-01
    157.00      0.17802E-01
    158.00      0.18815E-01
    159.00      0.19864E-01
    160.00      0.20948E-01
    161.00      0.22069E-01
    162.00      0.23226E-01
    163.00      0.24419E-01
    164.00      0.25649E-01
    165.00      0.26914E-01
    166.00      0.28217E-01
    167.00      0.29556E-01
    168.00      0.30932E-01
    169.00      0.32344E-01
    170.00      0.33792E-01
    171.00      0.35277E-01
    172.00      0.36797E-01
    173.00      0.38354E-01
    174.00      0.39945E-01
    175.00      0.41573E-01
    176.00      0.43236E-01
    177.00      0.44934E-01
    178.00      0.46666E-01
    179.00      0.48432E-01
    180.00      0.50279E-01
    181.00      0.52231E-01
    182.00      0.54222E-01
    183.00      0.56391E-01
    184.00      0.58744E-01
    185.00      0.61146E-01
    186.00      0.63692E-01
    187.00      0.66368E-01
    188.00      0.69099E-01
    189.00      0.71886E-01
    190.00      0.74730E-01
    191.00      0.77626E-01
    192.00      0.80573E-01
    193.00      0.83570E-01
    194.00      0.86617E-01
    195.00      0.89712E-01
    196.00      0.92856E-01
    197.00      0.96045E-01
    198.00      0.99280E-01
    199.00      0.10256    
    200.00      0.10588    
    201.00      0.10924    
    202.00      0.11265    
    203.00      0.11609    
    204.00      0.11958    
    205.00      0.12309    
    206.00      0.12665    
    207.00      0.13024    
    208.00      0.13386    
    209.00      0.13752    
    210.00      0.14120    
    211.00      0.14492    
    212.00      0.14866    
    213.00      0.15244    
    214.00      0.15623    
    215.00      0.16006    
    216.00      0.16390    
    217.00      0.16777    
    218.00      0.17166    
    219.00      0.17554    
    220.00      0.17945    
    221.00      0.18337    
    222.00      0.18726    
    223.00      0.19115    
    224.00      0.19506    
    225.00      0.19898    
    226.00      0.20291    
    227.00      0.20685    
    228.00      0.21081    
    229.00      0.21477    
    230.00      0.21874    
    231.00      0.22272    
    232.00      0.22670    
    233.00      0.23069    
    234.00      0.23469    
    235.00      0.23869    
    236.00      0.24268    
    237.00      0.24661    
    238.00      0.25054    
    239.00      0.25448    
    240.00      0.25833    
    241.00      0.26200    
    242.00      0.26566    
    243.00      0.26932    
    244.00      0.27301    
    245.00      0.27676    
    246.00      0.28050    
    247.00      0.28423    
    248.00      0.28812    
    249.00      0.29219    
    250.00      0.29626    
    251.00      0.30032    
    252.00      0.30436    
    253.00      0.30840    
    254.00      0.31243    
    255.00      0.31645    
    256.00      0.32047    
    257.00      0.32447    
    258.00      0.32846    
    259.00      0.33243    
    260.00      0.33640    
    261.00      0.34035    
    262.00      0.34429    
    263.00      0.34822    
    264.00      0.35213    
    265.00      0.35603    
    266.00      0.35992    
    267.00      0.36379    
    268.00      0.36764    
    269.00      0.37148    
    270.00      0.37531    
    271.00      0.37912    
    272.00      0.38291    
    273.00      0.38669    
    274.00      0.39046    
    275.00      0.39422    
    276.00      0.39796    
    277.00      0.40168    
    278.00      0.40540    
    279.00      0.40910    
    280.00      0.41279    
    281.00      0.41645    
    282.00      0.42011    
    283.00      0.42375    
    284.00      0.42737    
    285.00      0.73842E-04
    286.00      0.79530E-04
    287.00      0.85585E-04
    288.00      0.92025E-04
    289.00      0.98869E-04
    290.00      0.10614E-03
    291.00      0.11385E-03
    292.00      0.12203E-03
    293.00      0.13070E-03
    294.00      0.13988E-03
    295.00      0.14959E-03
    296.00      0.15985E-03
    297.00      0.17070E-03
    298.00      0.18216E-03
    299.00      0.19424E-03
    300.00      0.20699E-03
    301.00      0.22042E-03
    302.00      0.23457E-03
    303.00      0.24946E-03
    304.00      0.26512E-03
    305.00      0.28159E-03
    306.00      0.29888E-03
    307.00      0.31703E-03
    308.00      0.33608E-03
    309.00      0.35606E-03
    310.00      0.37699E-03
    311.00      0.39893E-03
    312.00      0.42189E-03
    313.00      0.44592E-03
    314.00      0.47105E-03
    315.00      0.49731E-03
    316.00      0.52475E-03
    317.00      0.55340E-03
    318.00      0.58330E-03
    319.00      0.61449E-03
    320.00      0.64700E-03
    321.00      0.68088E-03
    322.00      0.71617E-03
    323.00      0.75291E-03
    324.00      0.79113E-03
    325.00      0.83089E-03
    326.00      0.87221E-03
    327.00      0.91515E-03
    328.00      0.95975E-03
    329.00      0.10060E-02
    330.00      0.10541E-02
    331.00      0.11039E-02
    332.00      0.11556E-02
    333.00      0.12092E-02
    334.00      0.12647E-02
    335.00      0.13222E-02
    336.00      0.13817E-02
    337.00      0.14432E-02
    338.00      0.15069E-02
    339.00      0.15728E-02
    340.00      0.16408E-02
    341.00      0.17111E-02
    342.00      0.17837E-02
    343.00      0.18587E-02
    344.00      0.19360E-02
    345.00      0.20159E-02
    346.00      0.20982E-02
    347.00      0.21830E-02
    348.00      0.22705E-02
    349.00      0.23606E-02
    350.00      0.24534E-02
    351.00      0.25489E-02
    352.00      0.26472E-02
    353.00      0.27484E-02
    354.00      0.28524E-02
    355.00      0.29594E-02
    356.00      0.30694E-02
    357.00      0.31824E-02
    358.00      0.32986E-02
    359.00      0.34178E-02
    360.00      0.35402E-02
    361.00      0.36659E-02
    362.00      0.37948E-02
    363.00      0.39271E-02
    364.00      0.40627E-02
    365.00      0.42017E-02
    366.00      0.43443E-02
    367.00      0.44903E-02
    368.00      0.46399E-02
    369.00      0.47931E-02
    370.00      0.49500E-02
    371.00      0.51106E-02
    372.00      0.52749E-02
    373.00      0.54430E-02
    374.00      0.56149E-02
    375.00      0.57907E-02
    376.00      0.59744E-02
    377.00      0.61708E-02
    378.00      0.63717E-02
    379.00      0.65773E-02
    380.00      0.67876E-02
    381.00      0.70027E-02
    382.00      0.72249E-02
    383.00      0.74588E-02
    384.00      0.76980E-02
    385.00      0.79427E-02
    386.00      0.81928E-02
    387.00      0.84485E-02
    388.00      0.87097E-02
    389.00      0.89768E-02
    390.00      0.92496E-02
    391.00      0.95281E-02
    392.00      0.98124E-02
    393.00      0.10103E-01
    394.00      0.10399E-01
    395.00      0.10701E-01
    396.00      0.11009E-01
    397.00      0.11323E-01
    398.00      0.11643E-01
    399.00      0.11970E-01
    400.00      0.12302E-01
    401.00      0.12641E-01
    402.00      0.12986E-01
    403.00      0.13338E-01
    404.00      0.13695E-01
    405.00      0.14060E-01
    406.00      0.14430E-01
    407.00      0.14808E-01
    408.00      0.15191E-01
    409.00      0.15581E-01
    410.00      0.15978E-01
    411.00      0.16382E-01
    412.00      0.16792E-01
    413.00      0.17209E-01
    414.00      0.17632E-01
    415.00      0.18062E-01
    416.00      0.18499E-01
    417.00      0.18943E-01
    418.00      0.19394E-01
    419.00      0.19851E-01
    420.00      0.20315E-01
    421.00      0.20787E-01
    422.00      0.21265E-01
    423.00      0.21750E-01
    424.00      0.22242E-01
    425.00      0.22741E-01
    426.00      0.23247E-01
    427.00      0.23760E-01
    428.00      0.24280E-01
    429.00      0.24807E-01
    430.00      0.25341E-01
    431.00      0.25882E-01
    432.00      0.26431E-01
    433.00      0.26986E-01
    434.00      0.27548E-01
    435.00      0.28118E-01
    436.00      0.28694E-01
    437.00      0.29278E-01
    438.00      0.29869E-01
    439.00      0.30466E-01
    440.00      0.31071E-01
    441.00      0.31683E-01
    442.00      0.32302E-01
    443.00      0.32929E-01
    444.00      0.33562E-01
    445.00      0.34202E-01
    446.00      0.34850E-01
    447.00      0.35504E-01
    448.00      0.36166E-01
    449.00      0.36834E-01
    450.00      0.37510E-01
    451.00      0.38193E-01
    452.00      0.38883E-01
    453.00      0.39579E-01
    454.00      0.40283E-01
    455.00      0.40994E-01
    456.00      0.41712E-01
    457.00      0.42436E-01
    458.00      0.43168E-01
    459.00      0.43906E-01
    460.00      0.44652E-01
    461.00      0.45404E-01
    462.00      0.46163E-01
    463.00      0.46929E-01
    464.00      0.47702E-01
    465.00      0.48482E-01
    466.00      0.49268E-01
    467.00      0.50062E-01
    468.00      0.50862E-01
    469.00      0.51668E-01
    470.00      0.52482E-01
    471.00      0.53302E-01
    472.00      0.54128E-01
    473.00      0.54962E-01
    474.00      0.55801E-01
    475.00      0.56648E-01
    476.00      0.57501E-01
    477.00      0.58360E-01
    478.00      0.59226E-01
    479.00      0.60099E-01
    480.00      0.60979E-01
    481.00      0.61864E-01
    482.00      0.62757E-01
    483.00      0.63655E-01
    484.00      0.64560E-01
    485.00      0.65471E-01
    486.00      0.66395E-01
    487.00      0.67335E-01
    488.00      0.68282E-01
    489.00      0.69235E-01
    490.00      0.70194E-01
    491.00      0.71160E-01
    492.00      0.72132E-01
    493.00      0.73110E-01
    494.00      0.74094E-01
    495.00      0.75084E-01
    496.00      0.76081E-01
    497.00      0.77083E-01
    498.00      0.78091E-01
    499.00      0.79106E-01
    500.00      0.80126E-01
    501.00      0.81152E-01
    502.00      0.82184E-01
    503.00      0.83222E-01
    504.00      0.84265E-01
    505.00      0.85314E-01
    506.00      0.86369E-01
    507.00      0.87429E-01
    508.00      0.88495E-01
    509.00      0.89566E-01
    510.00      0.90643E-01
    511.00      0.91725E-01
    512.00      0.92812E-01
    513.00      0.93905E-01
    514.00      0.95003E-01
    515.00      0.96106E-01
    516.00      0.97214E-01
    517.00      0.98327E-01
    518.00      0.99445E-01
    519.00      0.10057    
    520.00      0.10170    
    521.00      0.10283    
    522.00      0.10397    
    523.00      0.10511    
    524.00      0.10626    
    525.00      0.10741    
    526.00      0.10857    
    527.00      0.10973    
    528.00      0.11090    
    529.00      0.11207    
    530.00      0.11324    
    531.00      0.11442    
    532.00      0.11560    
    533.00      0.11679    
    534.00      0.11798    
    535.00      0.11918    
    536.00      0.12038    
    537.00      0.12159    
    538.00      0.12280    
    539.00      0.12401    
    540.00      0.12522    
    541.00      0.12645    
    542.00      0.12767    
    543.00      0.12890    
    544.00      0.19822E-01
    545.00      0.20180E-01
    546.00      0.20543E-01
    547.00      0.20910E-01
    548.00      0.21281E-01
    549.00      0.21656E-01
    550.00      0.22036E-01
    551.00      0.22419E-01
    552.00      0.22807E-01
    553.00      0.23199E-01
    554.00      0.23596E-01
    555.00      0.23996E-01
    556.00      0.24401E-01
    557.00      0.24809E-01
    558.00      0.25222E-01
    559.00      0.25640E-01
    560.00      0.26061E-01
    561.00      0.26487E-01
    562.00      0.26917E-01
    563.00      0.27350E-01
    564.00      0.27788E-01
    565.00      0.28231E-01
    566.00      0.28677E-01
    567.00      0.29128E-01
    568.00      0.29583E-01
    569.00      0.30042E-01
    570.00      0.30506E-01
    571.00      0.30970E-01
    572.00      0.31438E-01
    573.00      0.31911E-01
    574.00      0.32387E-01
    575.00      0.32867E-01
    576.00      0.33352E-01
    577.00      0.33841E-01
    578.00      0.34334E-01
    579.00      0.34831E-01
    580.00      0.35332E-01
    581.00      0.35836E-01
    582.00      0.36345E-01
    583.00      0.36857E-01
    584.00      0.37374E-01
    585.00      0.37895E-01
    586.00      0.38420E-01
    587.00      0.38949E-01
    588.00      0.39482E-01
    589.00      0.40019E-01
    590.00      0.40560E-01
    591.00      0.41104E-01
    592.00      0.41653E-01
    593.00      0.42206E-01
    594.00      0.42763E-01
    595.00      0.43324E-01
    596.00      0.43889E-01
    597.00      0.44458E-01
    598.00      0.45031E-01
    599.00      0.45608E-01
    600.00      0.46189E-01
    601.00      0.46774E-01
    602.00      0.47363E-01
    603.00      0.47956E-01
    604.00      0.48553E-01
    605.00      0.49154E-01
    606.00      0.49759E-01
    607.00      0.50368E-01
    608.00      0.50981E-01
    609.00      0.51598E-01
    610.00      0.52218E-01
    611.00      0.52843E-01
    612.00      0.53471E-01
    613.00      0.54104E-01
    614.00      0.54740E-01
    615.00      0.55380E-01
    616.00      0.56023E-01
    617.00      0.56671E-01
    618.00      0.57323E-01
    619.00      0.57979E-01
    620.00      0.58638E-01
    621.00      0.59302E-01
    622.00      0.59969E-01
    623.00      0.60640E-01
    624.00      0.61315E-01
    625.00      0.61993E-01
    626.00      0.62676E-01
    627.00      0.63361E-01
    628.00      0.64053E-01
    629.00      0.64755E-01
    630.00      0.65461E-01
    631.00      0.66170E-01
    632.00      0.66883E-01
    633.00      0.67600E-01
    634.00      0.68321E-01
    635.00      0.69045E-01
    636.00      0.69773E-01
    637.00      0.70504E-01
    638.00      0.71240E-01
    639.00      0.71993E-01
    640.00      0.72749E-01
    641.00      0.73509E-01
    642.00      0.74273E-01
    643.00      0.75040E-01
    644.00      0.75811E-01
    645.00      0.76586E-01
    646.00      0.77364E-01
    647.00      0.78146E-01
    648.00      0.78931E-01
    649.00      0.79727E-01
    650.00      0.80529E-01
    651.00      0.81335E-01
    652.00      0.82144E-01
    653.00      0.82957E-01
    654.00      0.83773E-01
    655.00      0.84593E-01
    656.00      0.85416E-01
    657.00      0.86243E-01
    658.00      0.87073E-01
    659.00      0.87907E-01
    660.00      0.88744E-01
    661.00      0.89585E-01
    662.00      0.90428E-01
    663.00      0.91276E-01
    664.00      0.92126E-01
    665.00      0.92980E-01
    666.00      0.93837E-01
    667.00      0.94698E-01
    668.00      0.95561E-01
    669.00      0.96428E-01
    670.00      0.97273E-01
    671.00      0.98106E-01
    672.00      0.98941E-01
    673.00      0.99780E-01
    674.00      0.10062    
    675.00      0.10147    
    676.00      0.10231    
    677.00      0.10316    
    678.00      0.10401    
    679.00      0.10487    
    680.00      0.10573    
    681.00      0.10656    
    682.00      0.10739    
    683.00      0.10822    
    684.00      0.10905    
    685.00      0.10988    
    686.00      0.11072    
    687.00      0.11156    
    688.00      0.11240    
    689.00      0.11324    
    690.00      0.11409    
    691.00      0.11494    
    692.00      0.11578    
    693.00      0.11662    
    694.00      0.11747    
    695.00      0.11832    
    696.00      0.11917    
    697.00      0.12002    
    698.00      0.12087    
    699.00      0.12173    
    700.00      0.12258    
    701.00      0.12344    
    702.00      0.12430    
    703.00      0.12521    
    704.00      0.12613    
    705.00      0.12706    
    706.00      0.12799    
    707.00      0.12893    
    708.00      0.12986    
    709.00      0.13080    
    710.00      0.13174    
    711.00      0.13268    
    712.00      0.13362    
    713.00      0.13457    
    714.00      0.13553    
    715.00      0.13652    
    716.00      0.13752    
    717.00      0.13852    
    718.00      0.13952    
    719.00      0.14052    
    720.00      0.14152    
